*RAS_DATA_START
*RAS_HEADER_START
*DISP_FMT_X "%.3f"
*DISP_FMT_Y "%.0f"
*DISP_FULLSCALE "42441878.1326332020"
*DISP_LINE_COLOR "9868950.0000000000"
*DISP_LINE_STYLE "0.0000000000"
*DISP_LINE_WIDTH "0.2500000000"
*DISP_NOTE "Collected Data-1"
*DISP_OFFSET_Y "0.0000000000"
*DISP_PEAKSEARCH_UNIT_Y "cps"
*DISP_RANGE_BOTTOM "0.0000000000"
*DISP_RANGE_LEFT "0.0368000000"
*DISP_RANGE_LOGCUTOFF "0.0100000000"
*DISP_RANGE_RIGHT "0.9378000000"
*DISP_RANGE_TOP "68899.9053600000"
*DISP_SCALE_MODE_Y "0.0000000000"
*DISP_TAB_NAME "2-Theta"
*DISP_TITLE_Y "Intensity"
*DISP_UNIT_Y "cps"
*DISP_WINDOW_NAME "MSG_MACROENGINE"
*FILE_COMMENT ""
*FILE_MD5 ""
*FILE_MEMO ""
*FILE_OPERATOR "administrator"
*FILE_PART_ID "OPTC_KHP2_00040"
*FILE_SAMPLE ""
*FILE_TYPE "RAS_RAW"
*FILE_USERGROUP "System Manager"
*FILE_VERSION "1.0000000000"
*HW_ATTACHMENT_ID "ATT0022"
*HW_ATTACHMENT_NAME "RxRy|RxRy"
*HW_COUNTER_ID-0 "CUT0041"
*HW_COUNTER_ID-1 "CUT0020"
*HW_COUNTER_ID-2 "CUT0020"
*HW_COUNTER_ID-3 "CSL0021"
*HW_COUNTER_ID-4 "CMC0021"
*HW_COUNTER_NAME-0 "D/teX Ultra 250|D/teX Ultra 250"
*HW_COUNTER_NAME-1 "None|None"
*HW_COUNTER_NAME-2 "None|None"
*HW_COUNTER_NAME-3 "BBM|BBM"
*HW_COUNTER_NAME-4 "åüèoäÌÉÇÉmÉNÉçÉÅÅ[É^|Detector monochromator"
*HW_COUNTER_SELECT_NAME "D/teX Ultra 250|D/teX Ultra 250"
*HW_GONIOMETER_ID "GON0024"
*HW_GONIOMETER_NAME "SmartLab(In-plane)|SmartLab(In-plane)"
*HW_GONIOMETER_RADIUS-0 "90.0"
*HW_GONIOMETER_RADIUS-1 "114.0"
*HW_GONIOMETER_RADIUS-2 "190.0"
*HW_GONIOMETER_RADIUS-3 "300.0"
*HW_GONIOMETER_RADIUS-4 "187.0"
*HW_GONIOMETER_RADIUS-5 "300.0"
*HW_GONIOMETER_RADIUS-6 "113.0"
*HW_GONIOMETER_RADIUS-7 "331.0"
*HW_I_OPT_ID-0 "CBO0021"
*HW_I_OPT_ID-1 "ICR0023"
*HW_I_OPT_ID-2 "ISL0021"
*HW_I_OPT_ID-3 "ISO0021"
*HW_I_OPT_ID-4 "IAD0021"
*HW_I_OPT_ID-5 "IPR0001"
*HW_I_OPT_NAME-0 "CBOÉÜÉjÉbÉg|CBO unit"
*HW_I_OPT_NAME-1 "ïWèÄì¸éÀåıäwÉÜÉjÉbÉg|Standard incident optical unit"
*HW_I_OPT_NAME-2 "ïWèÄì¸éÀÉXÉäÉbÉgÉ{ÉbÉNÉX|Standard incident slit box"
*HW_I_OPT_NAME-3 "ì¸éÀïΩçsÉXÉäÉbÉg|Incident parallel slit"
*HW_I_OPT_NAME-4 "í∑éËêßå¿ÉXÉäÉbÉg|Length limiting slit"
*HW_I_OPT_NAME-5 "None|None"
*HW_R_ATTENUATER_AUTOMODE "1"
*HW_R_OPT_ID-0 "RSS0021"
*HW_R_OPT_ID-1 "RCR0023"
*HW_R_OPT_ID-2 "RSO0021"
*HW_R_OPT_ID-3 "RRS0021"
*HW_R_OPT_ID-4 "ATN0021"
*HW_R_OPT_ID-5 "RFL0021"
*HW_R_OPT_ID-6 "RAD0021"
*HW_R_OPT_NAME-0 "ïWèÄéÛåıÉXÉäÉbÉgÉ{ÉbÉNÉX1|Standard receiving slit box # 1"
*HW_R_OPT_NAME-1 "ïWèÄéÛåıåıäwÉÜÉjÉbÉg1|Standard receiving unit # 1"
*HW_R_OPT_NAME-2 "ïWèÄéÛåıåıäwÉÜÉjÉbÉg2|Standard receiving optical unit # 2"
*HW_R_OPT_NAME-3 "ïWèÄéÛåıÉXÉäÉbÉgÉ{ÉbÉNÉX2|Standard receiving slit box # 2"
*HW_R_OPT_NAME-4 "ïWèÄÉAÉbÉeÉlÅ[É^|Standard Attenuator"
*HW_R_OPT_NAME-5 "Cu KÉ¿|Cu K-beta"
*HW_R_OPT_NAME-6 "í≤êÆópéÛåıÉXÉäÉbÉg|Alignment receiving slit"
*HW_SAMPLE_HOLDER_ID "SMP0026"
*HW_SAMPLE_HOLDER_NAME "Z-É”ÉXÉeÅ[ÉW|Z-Phi Stage"
*HW_XG_CURRENT_MAX "50"
*HW_XG_CURRENT_MIN "2"
*HW_XG_CURRENT_RESOLUTION "1"
*HW_XG_CURRENT_UNIT "mA"
*HW_XG_FOCUS "1mm x 10mm"
*HW_XG_FOCUS_TYPE "Normal"
*HW_XG_ID "1200"
*HW_XG_NAME "3kW ïïì¸ä«(ID:1200)|3kW Sealed tube(ID:1200)"
*HW_XG_TARGET_ATOMIC_NUMBER "29.0000000000"
*HW_XG_TARGET_NAME "Cu"
*HW_XG_TYPE "Hermetic"
*HW_XG_VOLTAGE_MAX "50"
*HW_XG_VOLTAGE_MIN "20"
*HW_XG_VOLTAGE_RESOLUTION "1"
*HW_XG_VOLTAGE_UNIT "kV"
*HW_XG_WATT_MAX "2"
*HW_XG_WATT_UNIT "kW"
*HW_XG_WAVE_LENGTH_ALPHA1 "1.540593"
*HW_XG_WAVE_LENGTH_ALPHA2 "1.544414"
*HW_XG_WAVE_LENGTH_BETA "1.392250"
*MEAS_COND_AXIS_NAME-0 "Theta/2-Theta"
*MEAS_COND_AXIS_NAME-1 "2-Theta"
*MEAS_COND_AXIS_NAME-2 "Omega"
*MEAS_COND_AXIS_NAME-3 "Phi"
*MEAS_COND_AXIS_NAME-4 "Z"
*MEAS_COND_AXIS_NAME-5 "Rx"
*MEAS_COND_AXIS_NAME-6 "Ry"
*MEAS_COND_AXIS_NAME-7 "2-Theta/Omega"
*MEAS_COND_AXIS_NAME-8 "2-ThetaChi"
*MEAS_COND_AXIS_NAME-9 "2-ThetaChi/Phi"
*MEAS_COND_AXIS_NAME-10 "Alpha"
*MEAS_COND_AXIS_NAME-11 "Beta"
*MEAS_COND_AXIS_NAME-12 "Theta_s"
*MEAS_COND_AXIS_NAME-13 "Theta_d"
*MEAS_COND_AXIS_NAME-14 "Ts"
*MEAS_COND_AXIS_NAME-15 "CBO selection slit"
*MEAS_COND_AXIS_NAME-16 "M"
*MEAS_COND_AXIS_NAME-17 "Incident parallel slit"
*MEAS_COND_AXIS_NAME-18 "Incident slit"
*MEAS_COND_AXIS_NAME-19 ""
*MEAS_COND_AXIS_NAME-20 "Zs"
*MEAS_COND_AXIS_NAME-21 "Incident monochromator"
*MEAS_COND_AXIS_NAME-22 "Length limiting slit"
*MEAS_COND_AXIS_NAME-23 "Center slit"
*MEAS_COND_AXIS_NAME-24 "Filter"
*MEAS_COND_AXIS_NAME-25 "Receiving slit # 1"
*MEAS_COND_AXIS_NAME-26 "Receiving slit # 2"
*MEAS_COND_AXIS_NAME-27 "Receiving optical device"
*MEAS_COND_AXIS_NAME-28 "Receiving parallel slit"
*MEAS_COND_AXIS_NAME-29 "Alignment receiving slit"
*MEAS_COND_AXIS_NAME-30 ""
*MEAS_COND_AXIS_NAME-31 ""
*MEAS_COND_AXIS_NAME-32 "Zd"
*MEAS_COND_AXIS_NAME-33 "Attenuator"
*MEAS_COND_AXIS_NAME-34 "Diffracted beam monochromator"
*MEAS_COND_AXIS_NAME-35 "Monochromator slit"
*MEAS_COND_AXIS_NAME-36 "2-ThetaB"
*MEAS_COND_AXIS_NAME-37 "Primary beam"
*MEAS_COND_AXIS_NAME-38 "PHA"
*MEAS_COND_AXIS_NAME_INTERNAL-0 "TwoThetaTheta"
*MEAS_COND_AXIS_NAME_INTERNAL-1 "TwoTheta"
*MEAS_COND_AXIS_NAME_INTERNAL-2 "Omega"
*MEAS_COND_AXIS_NAME_INTERNAL-3 "Phi"
*MEAS_COND_AXIS_NAME_INTERNAL-4 "Z"
*MEAS_COND_AXIS_NAME_INTERNAL-5 "Rx"
*MEAS_COND_AXIS_NAME_INTERNAL-6 "Ry"
*MEAS_COND_AXIS_NAME_INTERNAL-7 "TwoThetaOmega"
*MEAS_COND_AXIS_NAME_INTERNAL-8 "TwoThetaChi"
*MEAS_COND_AXIS_NAME_INTERNAL-9 "TwoThetaChiPhi"
*MEAS_COND_AXIS_NAME_INTERNAL-10 "Alpha"
*MEAS_COND_AXIS_NAME_INTERNAL-11 "Beta"
*MEAS_COND_AXIS_NAME_INTERNAL-12 "ThetaS"
*MEAS_COND_AXIS_NAME_INTERNAL-13 "ThetaD"
*MEAS_COND_AXIS_NAME_INTERNAL-14 "Ts"
*MEAS_COND_AXIS_NAME_INTERNAL-15 "CBO"
*MEAS_COND_AXIS_NAME_INTERNAL-16 "CBO-M"
*MEAS_COND_AXIS_NAME_INTERNAL-17 "IncidentSollerSlit"
*MEAS_COND_AXIS_NAME_INTERNAL-18 "IncidentSlitBox"
*MEAS_COND_AXIS_NAME_INTERNAL-19 "IncidentSlitBox-_Axis"
*MEAS_COND_AXIS_NAME_INTERNAL-20 "Zs"
*MEAS_COND_AXIS_NAME_INTERNAL-21 "IncidentMonochromator"
*MEAS_COND_AXIS_NAME_INTERNAL-22 "IncidentAxdSlit"
*MEAS_COND_AXIS_NAME_INTERNAL-23 "CenterSlit"
*MEAS_COND_AXIS_NAME_INTERNAL-24 "Filter"
*MEAS_COND_AXIS_NAME_INTERNAL-25 "ReceivingSlitBox1"
*MEAS_COND_AXIS_NAME_INTERNAL-26 "ReceivingSlitBox2"
*MEAS_COND_AXIS_NAME_INTERNAL-27 "ReceivingOptics"
*MEAS_COND_AXIS_NAME_INTERNAL-28 "ReceivingSollerSlit"
*MEAS_COND_AXIS_NAME_INTERNAL-29 "ReceivingAxdSlit"
*MEAS_COND_AXIS_NAME_INTERNAL-30 "ReceivingSlitBox1-_Axis"
*MEAS_COND_AXIS_NAME_INTERNAL-31 "ReceivingSlitBox2-_Axis"
*MEAS_COND_AXIS_NAME_INTERNAL-32 "ReceivingSlitBox2-Zd"
*MEAS_COND_AXIS_NAME_INTERNAL-33 "Attenuator"
*MEAS_COND_AXIS_NAME_INTERNAL-34 "CounterMonochromator"
*MEAS_COND_AXIS_NAME_INTERNAL-35 "CounterSlit"
*MEAS_COND_AXIS_NAME_INTERNAL-36 "TwoThetaB"
*MEAS_COND_AXIS_NAME_INTERNAL-37 "IncidentPrimary"
*MEAS_COND_AXIS_NAME_INTERNAL-38 "PHA"
*MEAS_COND_AXIS_NAME_MAGICNO-0 "83951616.0000000000"
*MEAS_COND_AXIS_NAME_MAGICNO-1 "268632064.0000000000"
*MEAS_COND_AXIS_NAME_MAGICNO-2 "268500992.0000000000"
*MEAS_COND_AXIS_NAME_MAGICNO-3 "268500992.0000000000"
*MEAS_COND_AXIS_NAME_MAGICNO-4 "285278208.0000000000"
*MEAS_COND_AXIS_NAME_MAGICNO-5 "285278208.0000000000"
*MEAS_COND_AXIS_NAME_MAGICNO-6 "285278208.0000000000"
*MEAS_COND_AXIS_NAME_MAGICNO-7 "83951616.0000000000"
*MEAS_COND_AXIS_NAME_MAGICNO-8 "268632064.0000000000"
*MEAS_COND_AXIS_NAME_MAGICNO-9 "83951616.0000000000"
*MEAS_COND_AXIS_NAME_MAGICNO-10 "17039360.0000000000"
*MEAS_COND_AXIS_NAME_MAGICNO-11 "17039360.0000000000"
*MEAS_COND_AXIS_NAME_MAGICNO-12 "131072.0000000000"
*MEAS_COND_AXIS_NAME_MAGICNO-13 "131072.0000000000"
*MEAS_COND_AXIS_NAME_MAGICNO-14 "318898176.0000000000"
*MEAS_COND_AXIS_NAME_MAGICNO-15 "20971521.0000000000"
*MEAS_COND_AXIS_NAME_MAGICNO-16 "285343744.0000000000"
*MEAS_COND_AXIS_NAME_MAGICNO-17 "20971521.0000000000"
*MEAS_COND_AXIS_NAME_MAGICNO-18 "22020097.0000000000"
*MEAS_COND_AXIS_NAME_MAGICNO-19 "25165824.0000000000"
*MEAS_COND_AXIS_NAME_MAGICNO-20 "318898176.0000000000"
*MEAS_COND_AXIS_NAME_MAGICNO-21 "1.0000000000"
*MEAS_COND_AXIS_NAME_MAGICNO-22 "20971521.0000000000"
*MEAS_COND_AXIS_NAME_MAGICNO-23 "20971521.0000000000"
*MEAS_COND_AXIS_NAME_MAGICNO-24 "20971521.0000000000"
*MEAS_COND_AXIS_NAME_MAGICNO-25 "23068673.0000000000"
*MEAS_COND_AXIS_NAME_MAGICNO-26 "23068673.0000000000"
*MEAS_COND_AXIS_NAME_MAGICNO-27 "20971521.0000000000"
*MEAS_COND_AXIS_NAME_MAGICNO-28 "20971521.0000000000"
*MEAS_COND_AXIS_NAME_MAGICNO-29 "20971521.0000000000"
*MEAS_COND_AXIS_NAME_MAGICNO-30 "25165824.0000000000"
*MEAS_COND_AXIS_NAME_MAGICNO-31 "25165824.0000000000"
*MEAS_COND_AXIS_NAME_MAGICNO-32 "285343744.0000000000"
*MEAS_COND_AXIS_NAME_MAGICNO-33 "17301505.0000000000"
*MEAS_COND_AXIS_NAME_MAGICNO-34 "20971521.0000000000"
*MEAS_COND_AXIS_NAME_MAGICNO-35 "20971521.0000000000"
*MEAS_COND_AXIS_NAME_MAGICNO-36 "17039360.0000000000"
*MEAS_COND_AXIS_NAME_MAGICNO-37 "20971521.0000000000"
*MEAS_COND_AXIS_NAME_MAGICNO-38 "0.0000000000"
*MEAS_COND_AXIS_OFFSET-0 "-"
*MEAS_COND_AXIS_OFFSET-1 "0.5816000000"
*MEAS_COND_AXIS_OFFSET-2 "0.5104000000"
*MEAS_COND_AXIS_OFFSET-3 "0.0000000000"
*MEAS_COND_AXIS_OFFSET-4 "-"
*MEAS_COND_AXIS_OFFSET-5 "-"
*MEAS_COND_AXIS_OFFSET-6 "-"
*MEAS_COND_AXIS_OFFSET-7 "-"
*MEAS_COND_AXIS_OFFSET-8 "0.0000000000"
*MEAS_COND_AXIS_OFFSET-9 "-"
*MEAS_COND_AXIS_OFFSET-10 "-"
*MEAS_COND_AXIS_OFFSET-11 "-"
*MEAS_COND_AXIS_OFFSET-12 "0.5104000000"
*MEAS_COND_AXIS_OFFSET-13 "0.0712000000"
*MEAS_COND_AXIS_OFFSET-14 "-"
*MEAS_COND_AXIS_OFFSET-15 "-"
*MEAS_COND_AXIS_OFFSET-16 "-"
*MEAS_COND_AXIS_OFFSET-17 "-"
*MEAS_COND_AXIS_OFFSET-18 "-"
*MEAS_COND_AXIS_OFFSET-19 "-"
*MEAS_COND_AXIS_OFFSET-20 "-"
*MEAS_COND_AXIS_OFFSET-21 "-"
*MEAS_COND_AXIS_OFFSET-22 "-"
*MEAS_COND_AXIS_OFFSET-23 "-"
*MEAS_COND_AXIS_OFFSET-24 "-"
*MEAS_COND_AXIS_OFFSET-25 "-"
*MEAS_COND_AXIS_OFFSET-26 "-"
*MEAS_COND_AXIS_OFFSET-27 "-"
*MEAS_COND_AXIS_OFFSET-28 "-"
*MEAS_COND_AXIS_OFFSET-29 "-"
*MEAS_COND_AXIS_OFFSET-30 "-"
*MEAS_COND_AXIS_OFFSET-31 "-"
*MEAS_COND_AXIS_OFFSET-32 "-"
*MEAS_COND_AXIS_OFFSET-33 "-"
*MEAS_COND_AXIS_OFFSET-34 "-"
*MEAS_COND_AXIS_OFFSET-35 "-"
*MEAS_COND_AXIS_OFFSET-36 "-"
*MEAS_COND_AXIS_OFFSET-37 "-"
*MEAS_COND_AXIS_OFFSET-38 "-"
*MEAS_COND_AXIS_POSITION-0 "-0.3020000000"
*MEAS_COND_AXIS_POSITION-1 "-0.3020000000"
*MEAS_COND_AXIS_POSITION-2 "0.0000000000"
*MEAS_COND_AXIS_POSITION-3 "0.0000000000"
*MEAS_COND_AXIS_POSITION-4 "-4.0000000000"
*MEAS_COND_AXIS_POSITION-5 "0.0000000000"
*MEAS_COND_AXIS_POSITION-6 "0.0000000000"
*MEAS_COND_AXIS_POSITION-7 "-0.3020000000"
*MEAS_COND_AXIS_POSITION-8 "0.0000000000"
*MEAS_COND_AXIS_POSITION-9 "0.0000000000"
*MEAS_COND_AXIS_POSITION-10 "0.0000000000"
*MEAS_COND_AXIS_POSITION-11 "-0.1520000000"
*MEAS_COND_AXIS_POSITION-12 "0.0000000000"
*MEAS_COND_AXIS_POSITION-13 "-0.3020000000"
*MEAS_COND_AXIS_POSITION-14 "-0.5346300000"
*MEAS_COND_AXIS_POSITION-15 "PB"
*MEAS_COND_AXIS_POSITION-16 "0.0000000000"
*MEAS_COND_AXIS_POSITION-17 "Soller_slit_5.0deg"
*MEAS_COND_AXIS_POSITION-18 "0.050mm"
*MEAS_COND_AXIS_POSITION-19 "0.0500000000"
*MEAS_COND_AXIS_POSITION-20 "-1.5509400000"
*MEAS_COND_AXIS_POSITION-21 "0.0000000000"
*MEAS_COND_AXIS_POSITION-22 "10.0mm"
*MEAS_COND_AXIS_POSITION-23 "None"
*MEAS_COND_AXIS_POSITION-24 "None"
*MEAS_COND_AXIS_POSITION-25 "0.050mm"
*MEAS_COND_AXIS_POSITION-26 "10.000mm"
*MEAS_COND_AXIS_POSITION-27 "No_unit"
*MEAS_COND_AXIS_POSITION-28 "Soller_slit_5.0deg"
*MEAS_COND_AXIS_POSITION-29 "None"
*MEAS_COND_AXIS_POSITION-30 "0.0500000000"
*MEAS_COND_AXIS_POSITION-31 "10.0000000000"
*MEAS_COND_AXIS_POSITION-32 "0.2640600000"
*MEAS_COND_AXIS_POSITION-33 "1/10000"
*MEAS_COND_AXIS_POSITION-34 "None"
*MEAS_COND_AXIS_POSITION-35 "None"
*MEAS_COND_AXIS_POSITION-36 "0.3020000000"
*MEAS_COND_AXIS_POSITION-37 "None"
*MEAS_COND_AXIS_POSITION-38 "30.0000000000"
*MEAS_COND_AXIS_UNIT-0 "deg"
*MEAS_COND_AXIS_UNIT-1 "deg"
*MEAS_COND_AXIS_UNIT-2 "deg"
*MEAS_COND_AXIS_UNIT-3 "deg"
*MEAS_COND_AXIS_UNIT-4 "mm"
*MEAS_COND_AXIS_UNIT-5 "deg"
*MEAS_COND_AXIS_UNIT-6 "deg"
*MEAS_COND_AXIS_UNIT-7 "deg"
*MEAS_COND_AXIS_UNIT-8 "deg"
*MEAS_COND_AXIS_UNIT-9 "deg"
*MEAS_COND_AXIS_UNIT-10 "deg"
*MEAS_COND_AXIS_UNIT-11 "deg"
*MEAS_COND_AXIS_UNIT-12 "deg"
*MEAS_COND_AXIS_UNIT-13 "deg"
*MEAS_COND_AXIS_UNIT-14 "mm"
*MEAS_COND_AXIS_UNIT-15 ""
*MEAS_COND_AXIS_UNIT-16 "pulse"
*MEAS_COND_AXIS_UNIT-17 ""
*MEAS_COND_AXIS_UNIT-18 ""
*MEAS_COND_AXIS_UNIT-19 "mm"
*MEAS_COND_AXIS_UNIT-20 "mm"
*MEAS_COND_AXIS_UNIT-21 ""
*MEAS_COND_AXIS_UNIT-22 ""
*MEAS_COND_AXIS_UNIT-23 ""
*MEAS_COND_AXIS_UNIT-24 ""
*MEAS_COND_AXIS_UNIT-25 ""
*MEAS_COND_AXIS_UNIT-26 ""
*MEAS_COND_AXIS_UNIT-27 ""
*MEAS_COND_AXIS_UNIT-28 ""
*MEAS_COND_AXIS_UNIT-29 ""
*MEAS_COND_AXIS_UNIT-30 "mm"
*MEAS_COND_AXIS_UNIT-31 "mm"
*MEAS_COND_AXIS_UNIT-32 "mm"
*MEAS_COND_AXIS_UNIT-33 ""
*MEAS_COND_AXIS_UNIT-34 ""
*MEAS_COND_AXIS_UNIT-35 ""
*MEAS_COND_AXIS_UNIT-36 "deg"
*MEAS_COND_AXIS_UNIT-37 ""
*MEAS_COND_AXIS_UNIT-38 "div"
*MEAS_COND_COUNTER_CNTLOSS_CORR "0.0000000000"
*MEAS_COND_COUNTER_PHABASE "30.0000000000"
*MEAS_COND_COUNTER_PHAWINDOW "20.0000000000"
*MEAS_COND_COUNTER_PHA_UNIT "div"
*MEAS_COND_COUNTER_TAUDIFF "0.2500000000"
*MEAS_COND_COUNTER_TAUINT "0.7500000000"
*MEAS_COND_IRRADIATION_MODE "OFF"
*MEAS_COND_IRRADIATION_WIDTH ""
*MEAS_COND_OPT_ATTR "Medium resolution parallel beam/RS"
*MEAS_COND_OPT_NAME "@Medium resolution PB"
*MEAS_COND_UNSYMMETRIC_MODE "OFF"
*MEAS_COND_XG_CURRENT "30.0000000000"
*MEAS_COND_XG_VOLTAGE "40.0000000000"
*MEAS_COND_XG_WAVE_TYPE "Ka"
*MEAS_DATA_COUNT "151.0000000000"
*MEAS_SCAN_AXIS_X "2-Theta"
*MEAS_SCAN_AXIS_X_INTERNAL "TwoTheta"
*MEAS_SCAN_END_TIME "12/07/22 17:58:48"
*MEAS_SCAN_MODE "CONTINUOUS"
*MEAS_SCAN_MONITOR "0"
*MEAS_SCAN_RESOLUTION_X "0.0001"
*MEAS_SCAN_SPEED "2.028055"
*MEAS_SCAN_SPEED_UNIT "deg/min"
*MEAS_SCAN_SPEED_USER "2.000000"
*MEAS_SCAN_START "-0.3000000000"
*MEAS_SCAN_START_TIME "12/07/22 17:57:48"
*MEAS_SCAN_STEP "0.0040000000"
*MEAS_SCAN_STOP "0.3000000000"
*MEAS_SCAN_UNIT_X "deg"
*MEAS_SCAN_UNIT_Y "counts"
*RAS_HEADER_END
*RAS_INT_START
42.0000 66.0000 1.0000
42.0100 80.9889 1.0000
42.0200 49.0111 1.0000
42.0300 38.9889 1.0000
42.0400 49.5056 1.0000
42.0500 52.5056 1.0000
42.0600 48.4944 1.0000
42.0700 56.5056 1.0000
42.0800 82.0000 1.0000
42.0900 68.5056 1.0000
42.1000 69.9778 1.0000
42.1100 83.0111 1.0000
42.1200 62.5056 1.0000
42.1300 53.9889 1.0000
42.1400 56.0000 1.0000
42.1500 48.5167 1.0000
42.1600 59.9889 1.0000
42.1700 55.4944 1.0000
42.1800 59.0111 1.0000
42.1900 61.5056 1.0000
42.2000 61.4944 1.0000
42.2100 66.0000 1.0000
42.2200 62.4833 1.0000
42.2300 69.0222 1.0000
42.2400 59.9889 1.0000
42.2500 47.0000 1.0000
42.2600 50.5056 1.0000
42.2700 59.9889 1.0000
42.2800 68.0111 1.0000
42.2900 82.0000 1.0000
42.3000 65.4944 1.0000
42.3100 94.0000 1.0000
42.3200 58.0000 1.0000
42.3300 75.9889 1.0000
42.3400 64.0111 1.0000
42.3500 64.5056 1.0000
42.3600 87.0000 1.0000
42.3700 53.0000 1.0000
42.3800 53.5056 1.0000
42.3900 67.9778 1.0000
42.4000 61.0111 1.0000
42.4100 71.5056 1.0000
42.4200 60.0000 1.0000
42.4300 72.0000 1.0000
42.4400 58.0000 1.0000
42.4500 59.0000 1.0000
42.4600 71.0000 1.0000
42.4700 62.9889 1.0000
42.4800 74.5167 1.0000
42.4900 64.0000 1.0000
42.5000 71.9889 1.0000
42.5100 51.0111 1.0000
42.5200 76.9778 1.0000
42.5300 75.0111 1.0000
42.5400 67.0000 1.0000
42.5500 63.5056 1.0000
42.5600 61.9889 1.0000
42.5700 66.0000 1.0000
42.5800 76.0111 1.0000
42.5900 71.4944 1.0000
42.6000 79.5056 1.0000
42.6100 68.4944 1.0000
42.6200 64.4944 1.0000
42.6300 69.0111 1.0000
42.6400 86.0000 1.0000
42.6500 80.9889 1.0000
42.6600 69.5056 1.0000
42.6700 57.0111 1.0000
42.6800 64.9889 1.0000
42.6900 61.0111 1.0000
42.7000 74.9889 1.0000
42.7100 85.5056 1.0000
42.7200 76.5056 1.0000
42.7300 76.4944 1.0000
42.7400 70.0000 1.0000
42.7500 72.0000 1.0000
42.7600 88.4944 1.0000
42.7700 81.5056 1.0000
42.7800 86.0000 1.0000
42.7900 64.4833 1.0000
42.8000 76.0222 1.0000
42.8100 70.4833 1.0000
42.8200 91.0111 1.0000
42.8300 86.9778 1.0000
42.8400 64.0111 1.0000
42.8500 82.0111 1.0000
42.8600 75.5056 1.0000
42.8700 63.9778 1.0000
42.8800 74.0222 1.0000
42.8900 65.9889 1.0000
42.9000 85.9889 1.0000
42.9100 80.4944 1.0000
42.9200 101.5167 1.0000
42.9300 89.5056 1.0000
42.9400 78.0000 1.0000
42.9500 61.0000 1.0000
42.9600 81.4944 1.0000
42.9700 86.4944 1.0000
42.9800 71.5167 1.0000
42.9900 79.4833 1.0000
43.0000 80.5056 1.0000
43.0100 83.0000 1.0000
43.0200 80.0111 1.0000
43.0300 83.4944 1.0000
43.0400 82.0000 1.0000
43.0500 68.4944 1.0000
43.0600 87.5056 1.0000
43.0700 105.0000 1.0000
43.0800 89.0000 1.0000
43.0900 80.4944 1.0000
43.1000 85.4944 1.0000
43.1100 66.0111 1.0000
43.1200 68.5056 1.0000
43.1300 74.4944 1.0000
43.1400 85.9889 1.0000
43.1500 79.5167 1.0000
43.1600 78.4944 1.0000
43.1700 71.0000 1.0000
43.1800 45.9889 1.0000
43.1900 89.0111 1.0000
43.2000 70.4944 1.0000
43.2100 83.5056 1.0000
43.2200 74.5056 1.0000
43.2300 83.4944 1.0000
43.2400 53.5056 1.0000
43.2500 59.0000 1.0000
43.2600 65.9889 1.0000
43.2700 67.5056 1.0000
43.2800 68.4944 1.0000
43.2900 74.4944 1.0000
43.3000 73.5056 1.0000
43.3100 64.5056 1.0000
43.3200 69.4944 1.0000
43.3300 81.0000 1.0000
43.3400 92.0111 1.0000
43.3500 64.9889 1.0000
43.3600 76.0000 1.0000
43.3700 72.0000 1.0000
43.3800 84.0111 1.0000
43.3900 90.4944 1.0000
43.4000 71.4722 1.0000
43.4100 94.0333 1.0000
43.4200 75.9889 1.0000
43.4300 83.0000 1.0000
43.4400 115.0000 1.0000
43.4500 88.5056 1.0000
43.4600 95.9778 1.0000
43.4700 94.0111 1.0000
43.4800 77.5056 1.0000
43.4900 89.0000 1.0000
43.5000 73.0000 1.0000
43.5100 94.5056 1.0000
43.5200 101.9778 1.0000
43.5300 110.5056 1.0000
43.5400 81.5167 1.0000
43.5500 101.4944 1.0000
43.5600 92.5056 1.0000
43.5700 80.4944 1.0000
43.5800 89.0111 1.0000
43.5900 88.9889 1.0000
43.6000 76.0111 1.0000
43.6100 89.4833 1.0000
43.6200 85.5056 1.0000
43.6300 84.5056 1.0000
43.6400 92.4944 1.0000
43.6500 97.0111 1.0000
43.6600 84.4944 1.0000
43.6700 87.5056 1.0000
43.6800 80.4833 1.0000
43.6900 69.0111 1.0000
43.7000 81.4944 1.0000
43.7100 83.4944 1.0000
43.7200 73.5056 1.0000
43.7300 69.4944 1.0000
43.7400 103.0111 1.0000
43.7500 92.0000 1.0000
43.7600 53.0000 1.0000
43.7700 77.4944 1.0000
43.7800 63.0111 1.0000
43.7900 100.9778 1.0000
43.8000 53.0000 1.0000
43.8100 82.0222 1.0000
43.8200 86.0000 1.0000
43.8300 79.4944 1.0000
43.8400 68.5056 1.0000
43.8500 83.4833 1.0000
43.8600 83.0111 1.0000
43.8700 87.4944 1.0000
43.8800 76.0000 1.0000
43.8900 50.0111 1.0000
43.9000 86.4944 1.0000
43.9100 79.4944 1.0000
43.9200 75.4944 1.0000
43.9300 96.5056 1.0000
43.9400 75.0000 1.0000
43.9500 87.5056 1.0000
43.9600 93.9889 1.0000
43.9700 76.5056 1.0000
43.9800 87.4944 1.0000
43.9900 89.0111 1.0000
44.0000 88.0000 1.0000
44.0100 88.9889 1.0000
44.0200 96.5056 1.0000
44.0300 122.9889 1.0000
44.0400 110.5167 1.0000
44.0500 94.4944 1.0000
44.0600 108.9889 1.0000
44.0700 81.5056 1.0000
44.0800 103.5167 1.0000
44.0900 125.4833 1.0000
44.1000 105.0111 1.0000
44.1100 105.4944 1.0000
44.1200 113.5056 1.0000
44.1300 109.0000 1.0000
44.1400 91.9889 1.0000
44.1500 96.0000 1.0000
44.1600 106.4944 1.0000
44.1700 93.0222 1.0000
44.1800 103.9889 1.0000
44.1900 112.0111 1.0000
44.2000 121.4833 1.0000
44.2100 101.0000 1.0000
44.2200 141.5056 1.0000
44.2300 115.9889 1.0000
44.2400 143.5056 1.0000
44.2500 123.0111 1.0000
44.2600 137.9889 1.0000
44.2700 129.5056 1.0000
44.2800 159.0000 1.0000
44.2900 136.0000 1.0000
44.3000 151.9889 1.0000
44.3100 133.0222 1.0000
44.3200 142.4944 1.0000
44.3300 140.9889 1.0000
44.3400 133.9889 1.0000
44.3500 147.5167 1.0000
44.3600 136.4944 1.0000
44.3700 180.0000 1.0000
44.3800 187.4833 1.0000
44.3900 181.0000 1.0000
44.4000 168.5278 1.0000
