Temperature (K)      Magnetization (mu_B / f.u.)
1.9965               NaN
1.9972               NaN
1.9975               NaN
1.9977               NaN
1.9979               NaN
1.9980               NaN
1.9984               NaN
1.9985               NaN
1.9987               NaN
1.9988               NaN
1.9990               NaN
1.9990               NaN
1.9992               NaN
1.9993               NaN
1.9993               NaN
1.9993               NaN
1.9995               NaN
1.9996               NaN
1.9997               NaN
1.9999               NaN
2.0000               NaN
2.0003               NaN
2.0004               NaN
2.0006               NaN
2.0186               NaN
2.0537               NaN
2.0903               NaN
2.1245               NaN
2.1568               NaN
2.1952               NaN
2.2382               NaN
2.2749               NaN
2.3011               NaN
2.3183               NaN
2.3286               NaN
2.3288               NaN
2.3331               NaN
2.3367               NaN
2.3369               NaN
2.3413               NaN
2.3430               NaN
2.3448               NaN
2.3457               NaN
2.3482               NaN
2.3494               NaN
2.3520               NaN
2.3547               NaN
2.3555               NaN
2.3571               NaN
2.3593               NaN
2.3602               NaN
2.3624               NaN
2.3631               NaN
2.3640               NaN
2.3676               NaN
2.3690               NaN
2.3711               NaN
2.3711               NaN
2.3771               NaN
2.3928               NaN
2.3995               NaN
2.4005               NaN
2.4032               NaN
2.4050               NaN
2.4074               NaN
2.4117               NaN
2.4126               NaN
2.4129               NaN
2.4133               NaN
2.4147               NaN
2.4153               NaN
2.4154               NaN
2.4157               NaN
2.4159               NaN
2.4159               NaN
2.4170               NaN
2.4179               NaN
2.4205               NaN
2.4218               NaN
2.4226               NaN
2.4250               NaN
2.4274               NaN
2.4275               NaN
2.4276               NaN
2.4280               NaN
2.4281               NaN
2.4281               NaN
2.4284               NaN
2.4288               NaN
2.4300               NaN
2.4301               NaN
2.4309               NaN
2.4315               NaN
2.4419               NaN
2.4582               NaN
2.4746               NaN
2.4829               NaN
2.5020               NaN
2.5501               NaN
2.6386               NaN
2.7899               NaN
3.0695               NaN
3.4878               NaN
4.0389               NaN
4.6578               NaN
5.2915               0.0948
5.9173               0.0901
6.3160               0.0893
6.5870               0.0895
6.7797               0.0857
7.3150               0.0810
8.3537               0.0824
8.8262               0.0801
9.0012               0.0785
9.2661               0.0792
9.5081               0.0780
9.6095               0.0767
9.6429               0.0758
10.6919              0.0813
12.1686              0.0779
13.7782              0.0672
14.4275              0.0680
15.2805              0.0661
15.8825              0.0673
17.3775              0.0662
19.1571              0.0593
19.7823              0.0586
20.4749              0.0572
21.1548              0.0567
21.8097              0.0552
22.4520              0.0539
23.1964              0.0523
23.7706              0.0519
25.2901              0.0465
27.1792              0.0479
27.9161              0.0483
28.6248              0.0466
29.2741              0.0471
29.9392              0.0467
30.6442              0.0463
31.3347              0.0453
32.0804              0.0455
32.7604              0.0459
33.4569              0.0435
34.1615              0.0434
34.7897              0.0436
35.4343              0.0429
36.1035              0.0418
36.7778              0.0417
37.5449              0.0417
38.2455              0.0419
38.9045              0.0408
39.5586              0.0410
40.2489              0.0414
40.9480              0.0403
41.6600              0.0396
42.3580              0.0391
43.0145              0.0377
43.6627              0.0375
44.3849              0.0377
45.0283              0.0364
45.6762              0.0360
46.4075              0.0361
47.1391              0.0357
47.8336              0.0345
48.4825              0.0338
49.2988              0.0342
49.9285              0.0334
51.4983              0.0322
53.2875              0.0326
53.9631              0.0314
54.6476              0.0314
55.3500              0.0316
56.1493              0.0318
56.6233              0.0304
58.2847              0.0297
60.2218              0.0294
60.8235              0.0294
61.4870              0.0296
62.1800              0.0285
62.8550              0.0292
63.5455              0.0287
64.2549              0.0281
64.9465              0.0279
65.6895              0.0279
66.4002              0.0276
67.1180              0.0269
67.7894              0.0279
68.4507              0.0270
69.0971              0.0270
69.7373              0.0267
70.4189              0.0262
71.0942              0.0259
71.7776              0.0258
72.4800              0.0260
73.1497              0.0260
73.8057              0.0258
74.4898              0.0262
75.1559              0.0251
75.8527              0.0251
76.6041              0.0249
77.2805              0.0249
78.0196              0.0249
78.6575              0.0250
79.2892              0.0251
79.9899              0.0246
80.6739              0.0240
81.3308              0.0238
82.0369              0.0239
82.7111              0.0234
83.2985              0.0235
83.9913              0.0225
84.7338              0.0226
85.4820              0.0231
86.1992              0.0232
86.9038              0.0232
87.5917              0.0235
88.1868              0.0235
88.7965              0.0227
89.4188              0.0227
90.1235              0.0227
90.7877              0.0228
91.5396              0.0219
92.2603              0.0230
92.9565              0.0215
93.5053              0.0226
94.2250              0.0226
94.9151              0.0228
95.6057              0.0234
96.3585              0.0235
97.1018              0.0235
97.7570              0.0224
98.3183              0.0224
98.9731              0.0223
99.6674              0.0218
100.3753             0.0209
101.0257             0.0208
101.6703             0.0204
102.3521             0.0201
102.9451             0.0201
103.5860             0.0201
104.2658             0.0203
104.9397             0.0203
105.6686             0.0205
106.3802             0.0191
107.0337             0.0192
107.6049             0.0196
108.2227             0.0197
108.8763             0.0198
109.6022             0.0209
110.2949             0.0209
110.9905             0.0200
111.6792             0.0200
112.3451             0.0198
113.0564             0.0194
113.7377             0.0194
114.4088             0.0195
115.0644             0.0186
115.6451             0.0187
116.2640             0.0188
116.9802             0.0188
117.6521             0.0182
118.3267             0.0183
118.9880             0.0185
119.6354             0.0187
120.3107             0.0185
120.9924             0.0184
121.6554             0.0184
122.3181             0.0184
123.0329             0.0184
123.7116             0.0190
124.3970             0.0192
125.0253             0.0191
125.8522             0.0190
126.4224             0.0189
127.9057             0.0183
129.7485             0.0182
130.3153             0.0186
131.0807             0.0187
131.7058             0.0190
132.3893             0.0190
133.1274             0.0183
133.8218             0.0182
134.4718             0.0182
135.1529             0.0182
135.8043             0.0178
136.4386             0.0179
137.1429             0.0179
137.8611             0.0181
138.5830             0.0182
139.2553             0.0181
139.8747             0.0175
140.4740             0.0175
141.0837             0.0175
141.7682             0.0176
142.4602             0.0174
143.1109             0.0174
143.7949             0.0171
144.4881             0.0170
145.1635             0.0170
145.8547             0.0165
146.5495             0.0166
147.2018             0.0168
147.8147             0.0168
148.4608             0.0168
149.1342             0.0168
149.8016             0.0158
150.4506             0.0165
151.1121             0.0166
151.7459             0.0167
152.4435             0.0158
153.1738             0.0159
153.8204             0.0157
154.4428             0.0161
155.1044             0.0155
155.8169             0.0155
156.4104             0.0156
157.2474             0.0156
157.9200             0.0157
158.5744             0.0155
159.2006             0.0155
159.8525             0.0154
160.5787             0.0146
161.2901             0.0146
162.0056             0.0145
162.6382             0.0148
163.2963             0.0147
163.9909             0.0144
164.6077             0.0144
165.2283             0.0144
165.8663             0.0144
166.5148             0.0144
167.1253             0.0141
167.7199             0.0141
168.4070             0.0140
169.1143             0.0139
169.8491             0.0140
170.5420             0.0136
171.2185             0.0136
171.8874             0.0136
172.5074             0.0135
173.1808             0.0137
173.9445             0.0136
174.6793             0.0132
175.2808             0.0132
175.8421             0.0133
176.4461             0.0134
177.0936             0.0134
177.7376             0.0134
178.4144             0.0132
179.1223             0.0129
179.8568             0.0129
180.7308             0.0136
181.5238             0.0137
182.2882             0.0138
182.9588             0.0134
183.5968             0.0134
184.2952             0.0135
185.0164             0.0136
185.8344             0.0136
186.5775             0.0135
187.3314             0.0130
188.1571             0.0130
188.9880             0.0131
189.8640             0.0134
190.7037             0.0134
191.5351             0.0133
192.3590             0.0131
193.1368             0.0131
193.9504             0.0132
194.8559             0.0136
195.6534             0.0137
196.5221             0.0137
197.3301             0.0134
198.2056             0.0135
199.0829             0.0134
199.8722             0.0133
200.6696             0.0133
201.5686             0.0133
202.3291             0.0127
203.0139             0.0130
203.6848             0.0131
204.3807             0.0131
205.1050             0.0131
205.8166             0.0132
206.4320             0.0138
207.0112             0.0141
207.5759             0.0139
208.1098             0.0139
208.6096             0.0133
209.1007             0.0133
209.5637             0.0134
209.9350             0.0140
210.2542             0.0140
210.5572             0.0139
210.8271             0.0139
211.0790             0.0137
211.2883             0.0140
211.4901             0.0134
211.6680             0.0135
211.8192             0.0135
211.9404             0.0137
212.0286             0.0137
212.1486             0.0142
212.2383             0.0145
212.3142             0.0145
212.3724             0.0147
212.4266             0.0140
212.4818             0.0138
212.5238             0.0138
212.5535             0.0141
212.5816             0.0144
212.6131             0.0144
212.6390             0.0147
212.6541             0.0147
212.6639             0.0146
212.6681             0.0146
212.6705             0.0146
212.6713             0.0147
212.6730             0.0145
212.6833             0.0144
212.6945             0.0140
212.7045             0.0140
212.7152             0.0137
212.7259             0.0137
212.7366             0.0135
212.7479             0.0135
212.7584             0.0136
212.7689             0.0141
212.7788             0.0141
212.7893             0.0141
212.7995             0.0141
212.8097             0.0141
212.8197             0.0139
212.8292             0.0139
212.8394             0.0139
212.8499             0.0139
212.8605             0.0141
212.8708             0.0141
212.8809             0.0141
212.8915             0.0141
212.9024             0.0141
212.9130             0.0142
212.9233             0.0142
212.9348             0.0138
212.9450             0.0136
212.9548             0.0136
212.9643             0.0137
212.9744             0.0138
212.9859             0.0139
212.9960             0.0139
213.0056             0.0138
213.0168             0.0137
213.0267             0.0137
213.0368             0.0142
213.0479             0.0142
213.0585             0.0136
213.0690             0.0136
213.0793             0.0137
213.0897             0.0137
213.1006             0.0135
213.1119             0.0135
213.1234             0.0136
213.1338             0.0136
213.1440             0.0140
213.1553             0.0134
213.1657             0.0140
213.1756             0.0132
213.1861             0.0137
213.1967             0.0137
213.2077             0.0137
213.2194             0.0140
213.2297             0.0142
213.2391             0.0142
213.2490             0.0141
213.2592             0.0140
213.2695             0.0137
213.2808             0.0137
213.2924             0.0141
213.3026             0.0141
213.3135             0.0142
213.3244             0.0142
213.3340             0.0142
213.3445             0.0137
213.3563             0.0137
213.3662             0.0136
213.3762             0.0137
213.3868             0.0139
213.3977             0.0139
213.4084             0.0139
213.4192             0.0139
213.4296             0.0140
213.4408             0.0140
213.4509             0.0142
213.4619             0.0141
213.4729             0.0141
213.4837             0.0139
213.4941             0.0138
213.5047             0.0138
213.5153             0.0135
213.5263             0.0135
213.5375             0.0135
213.5495             0.0137
213.5611             0.0136
213.5726             0.0138
213.5825             0.0136
213.5924             0.0136
213.6029             0.0136
213.6134             0.0136
213.6241             0.0137
213.6351             0.0137
213.6466             0.0138
213.6584             0.0136
213.6689             0.0136
213.6796             0.0136
213.6910             0.0137
213.7011             0.0139
213.7106             0.0140
213.7218             0.0140
213.7332             0.0137
213.7444             0.0137
213.7537             0.0137
213.7636             0.0137
213.7752             0.0137
213.7868             0.0137
213.7974             0.0135
213.8086             0.0135
213.8198             0.0136
213.8305             0.0136
213.8413             0.0134
213.8535             0.0134
213.8645             0.0137
213.8749             0.0137
213.8852             0.0134
213.8954             0.0134
213.9064             0.0134
213.9170             0.0135
213.9276             0.0137
213.9384             0.0137
213.9485             0.0137
213.9593             0.0136
213.9706             0.0136
213.9815             0.0136
213.9927             0.0136
214.0044             0.0136
214.0153             0.0135
214.0260             0.0134
214.0374             0.0134
214.0489             0.0135
214.0595             0.0135
214.0697             0.0135
214.0809             0.0135
214.0928             0.0134
214.1040             0.0134
214.1143             0.0134
214.1243             0.0135
214.1371             0.0135
214.1498             0.0136
214.1610             0.0139
214.1715             0.0139
214.1813             0.0141
214.1922             0.0137
214.2042             0.0136
214.2149             0.0135
214.2258             0.0136
214.2368             0.0135
214.2471             0.0134
214.2578             0.0134
214.2692             0.0135
214.2802             0.0137
214.2895             0.0136
214.3000             0.0136
214.3111             0.0136
214.3224             0.0137
214.3343             0.0137
214.3460             0.0133
214.3583             0.0133
214.3689             0.0138
214.3799             0.0138
214.3916             0.0135
214.4029             0.0135
214.4141             0.0135
214.4236             0.0139
214.4340             0.0135
214.4452             0.0139
214.4571             0.0136
214.4682             0.0137
214.4779             0.0136
214.4878             0.0136
214.4991             0.0136
214.5108             0.0136
214.5221             0.0132
214.5330             0.0132
214.5438             0.0135
214.5546             0.0135
214.5655             0.0134
214.5781             0.0134
214.5908             0.0134
214.6018             0.0132
214.6120             0.0133
214.6232             0.0133
214.6345             0.0139
214.6463             0.0139
214.6577             0.0134
214.6698             0.0134
214.6815             0.0134
214.6929             0.0133
214.7040             0.0131
214.7140             0.0131
214.7235             0.0131
214.7343             0.0131
214.7457             0.0135
214.7579             0.0135
214.7699             0.0132
214.7800             0.0132
214.7909             0.0132
214.8029             0.0129
214.8148             0.0129
214.8256             0.0133
214.8366             0.0133
214.8482             0.0131
214.8588             0.0131
214.8690             0.0134
214.8803             0.0134
214.8918             0.0142
214.9033             0.0133
214.9137             0.0142
214.9254             0.0131
214.9367             0.0133
214.9480             0.0134
214.9598             0.0135
214.9714             0.0136
214.9833             0.0135
214.9950             0.0136
215.0061             0.0132
215.0173             0.0135
215.0289             0.0132
215.0402             0.0133
215.0523             0.0133
215.0642             0.0137
215.0762             0.0137
215.0866             0.0133
215.0971             0.0133
215.1082             0.0133
215.1200             0.0139
215.1315             0.0139
215.1426             0.0139
215.1538             0.0133
215.1657             0.0135
215.1775             0.0132
215.1885             0.0132
215.1998             0.0132
215.2124             0.0132
215.2243             0.0132
215.2356             0.0132
215.2485             0.0131
215.2602             0.0131
215.2705             0.0130
215.2818             0.0132
215.2924             0.0132
215.3026             0.0132
215.3134             0.0135
215.3252             0.0128
215.3375             0.0128
215.3505             0.0128
215.3621             0.0127
215.3727             0.0131
215.3846             0.0127
215.3974             0.0131
215.4100             0.0128
215.4215             0.0131
215.4332             0.0131
215.4446             0.0133
215.4550             0.0133
215.4671             0.0131
215.4784             0.0131
215.4896             0.0131
215.5021             0.0131
215.5135             0.0131
215.5242             0.0132
215.5348             0.0135
215.5457             0.0135
215.5575             0.0130
215.5685             0.0130
215.5791             0.0133
215.5905             0.0135
215.6031             0.0135
215.6155             0.0135
215.6269             0.0133
215.6386             0.0133
215.6515             0.0128
215.6638             0.0128
215.6745             0.0128
215.6857             0.0130
215.6979             0.0134
215.7099             0.0130
215.7213             0.0133
215.7328             0.0130
215.7447             0.0133
215.7559             0.0133
215.7666             0.0133
215.7785             0.0127
215.7899             0.0127
215.8007             0.0133
215.8120             0.0133
215.8239             0.0133
215.8361             0.0134
215.8479             0.0134
215.8610             0.0133
215.8734             0.0131
215.8843             0.0133
215.8960             0.0133
215.9084             0.0135
215.9200             0.0136
215.9307             0.0136
215.9424             0.0132
215.9548             0.0132
215.9668             0.0132
215.9790             0.0130
215.9904             0.0132
216.0017             0.0127
216.0147             0.0130
216.0271             0.0130
